File: 2720/a4/.ipynb_checkpoints/test-checkpoint.csv
Cement (component 1)(kg in a m^3 mixture),Blast Furnace Slag (component 2)(kg in a m^3 mixture),Fly Ash (component 3)(kg in a m^3 mixture),Water  (component 4)(kg in a m^3 mixture),Superplasticizer (component 5)(kg in a m^3 mixture),Coarse Aggregate  (component 6)(kg in a m^3 mixture),Fine Aggregate (component 7)(kg in a m^3 mixture),Age (day),"Concrete compressive strength(MPa, megapascals) "
500,0,0,140,4,966,853,28,67.5686
337.9,189,0,174.9,9.5,944.7,755.8,3,24.0972
393,0,0,192,0,940.6,785.6,90,48.8466
147,115,89,202,9,860,829,28,19.9879
229.97,0,118.31,195.47,4.63,1029.4,758.59,28,24.4833
213.76,98.06,24.52,181.74,6.65,1066,785.52,100,49.9732
350,0,0,186,0,1050,770,7,20.2775
313,145,0,178,8,1002,689,28,41.0514
164,0,200,181,13,849,846,28,15.0857
382.5,0,0,185.7,0,1047.8,739.3,28,37.4379
194.68,0,100.52,170.17,7.48,998,901.8,56,43.3887
213.72,98.05,24.51,181.71,6.86,1065.8,785.38,100,53.9032
337.9,189,0,174.9,9.5,944.7,755.8,56,59.8948
133,200,0,192,0,927.4,839.2,3,6.88373
250,0,95.69,191.84,5.33,948.9,857.2,3,8.48745
500,0,0,200,0,1125,613,7,33.2121
166.8,250.2,0,203.5,0,975.6,692.6,3,6.90234
387,20,94,157,13.93,938,845,3,25.5106
397,17.2,158,167,20.8,967,633,28,55.6476
295.71,0,95.64,171.54,8.87,955.14,859.2,3,22.9458
380,0,0,228,0,932,670,90,52.9083
148,0,137,158,16,1002,830,28,17.954
239.6,359.4,0,185.7,0,941.6,664.3,7,25.4224
350,0,0,203,0,974,775,14,22.5321
290.35,0,96.18,168.08,9.41,961.18,865,100,48.9735
212.07,0,121.62,180.31,5.69,1057.6,779.32,100,39.6104
190,190,0,228,0,932,670,180,46.9319
122.6,183.9,0,203.5,0,958.2,800.1,28,24.2909
376,0,0,214.6,0,1003.5,762.36,3,16.2785
158.8,238.2,0,185.7,0,1040.6,734.3,28,21.0662
255.3,98.8,77,188.6,6.5,919,749.3,28,33.7988
376,0,0,214.6,0,1003.5,762.36,14,25.6209
166.8,250.2,0,203.5,0,975.6,692.6,7,15.7483
102,153,0,192,0,887,942,28,17.2755
318.8,212.5,0,155.7,14.3,852.1,880.4,91,68.0995
252.1,97.1,75.6,193.8,8.3,835.5,821.4,28,33.3996
425,106.3,0,151.4,18.6,936,803.7,7,46.8016
375,93.8,0,126.6,23.4,852.1,992.6,3,28.9994
540,0,0,162,2.5,1040,676,28,79.9861
480,0,0,192,0,936,721,3,24.3937
349,0,0,192,0,1056,809,7,9.01145
252.31,0,98.75,146.25,14.17,987.76,889.01,56,55.8269
446,24,79,162,11.61,967,712,3,35.3632
238.05,0,94.11,186.66,7,949.91,847.01,28,30.2335
250,0,0,182,0,1100,820,7,12.7346
142,167,130,174,11,883,785,28,44.6091
194.68,0,100.52,170.17,7.48,998,901.8,3,12.1761
332.5,142.5,0,228,0,932,594,365,41.0528
314,145,113,179,8,869,690,28,46.2294
148,175,0,171,2,1000,828,28,26.9171
325.6,166.4,0,174,8.9,881.6,790,28,61.2358
297.16,0,117.54,174.8,9.52,1022.8,753.45,3,21.9115
272.8,105.1,81.8,209.7,9,904,679.7,28,37.171
331,0,0,192,0,879,825,3,13.5206
439,177,0,186,11.1,884.9,707.9,7,56.0958
135.7,203.5,0,185.7,0,1076.2,759.3,28,18.1987
385,0,0,186,0,966,763,14,27.9238
380,95,0,228,0,932,594,28,36.4478
310,0,0,192,0,1012,830,120,38.7003
349,0,0,192,0,1047,806,90,39.4863
255.5,170.3,0,185.7,0,1026.6,724.3,28,32.0517
145,0,179,202,8,824,869,28,10.5352
287,121,94,188,9,904,696,28,41.9408
220.8,147.2,0,185.7,0,1055,744.3,7,13.089
155,184,143,194,9,880,699,28,28.9856
331,0,0,192,0,978,825,360,41.2445
290.35,0,96.18,168.08,9.41,961.18,865,14,34.6737
295.8,0,0,185.7,0,1091.4,769.3,28,25.2169
332.5,142.5,0,228,0,932,594,28,33.019
387,20,94,157,11.61,938,845,3,34.7703
331,0,0,192,0,978,825,7,16.2647
281,0,0,186,0,1104,774,7,14.4997
200,133,0,192,0,965.4,806.2,7,17.1659
213.74,0,174.74,154.79,10.16,1053.5,776.35,100,50.0766
152,178,139,168,18,944,695,28,36.3492
173,116,0,192,0,946.8,856.8,28,24.282
102,153,0,192,0,887,942,90,25.461
525,0,0,189,0,1125,613,270,67.1136
156,178,187,221,7,854,614,28,29.413
251.37,0,118.27,192.94,5.75,1043.6,754.3,100,40.1482
375,93.8,0,126.6,23.4,852.1,992.6,28,56.6956
190,190,0,228,0,932,670,90,42.3269
228,342.1,0,185.7,0,955.8,674.3,7,21.9171
322.5,148.6,0,185.8,8.5,951,709.5,28,52.4264
331,0,0,192,0,978,825,180,38.9968
200,0,0,180,0,1125,845,28,12.2451
425,106.3,0,153.5,16.5,852.1,887.1,91,65.1969
238.1,0,0,185.7,0,1118.8,789.3,28,17.5761
480,0,0,192,0,936.2,712.2,3,24.4047
355,19,97,145,12.25,967,871,28,55.4546
385,0,0,186,0,966,763,28,31.3505
362.6,189,0,164.9,11.6,944.7,755.8,3,35.3012
108.3,162.4,0,203.5,0,938.2,849,28,20.594
164.2,0,200.1,181.2,12.6,849.3,846,28,15.0913
139.9,132.6,103.3,200.3,7.4,916,753.4,28,36.4436
193.5,290.2,0,185.7,0,998.2,704.3,28,32.6267
424,22,132,168,8.92,822,750,56,74.3649
166.09,0,163.27,176.46,4.49,1058.6,780.09,28,21.5392
182.04,45.21,121.97,170.21,8.19,1059.4,780.65,3,7.31534
424,22,132,178,8.48,882,750,3,32.0114
379.5,151.2,0,153.9,15.9,1134.3,605,91,56.4957
376,0,0,214.6,0,1003.5,762.36,28,31.971
149,236,0,176,13,847,893,28,32.957
389.9,189,0,145.9,22,944.7,755.8,28,74.4979
212.52,0,100.37,159.32,8.71,1007.8,903.59,3,13.5413
279.8,128.9,100.4,172.4,9.5,825.1,804.9,28,52.827
203.5,305.3,0,203.5,0,963.4,630,7,19.5391
427.5,47.5,0,228,0,932,594,90,41.543
146.5,114.6,89.3,201.9,8.8,860,829.5,28,19.9879
349,0,0,192,0,1047,806,360,42.127
168.88,42.22,124.25,158.33,10.83,1080.8,796.15,56,39.1484
333,0,0,192,0,931.2,842.6,7,23.405
300,0,120,212,10,878,728,28,23.8352
133,200,0,192,0,927.4,839.2,28,27.8748
298,0,107,186,6,879,815,28,42.6372
153,102,0,192,0,888,943.1,3,4.78221
236,157,0,192,0,972.6,749.1,28,32.8846
277,0,0,191,0,968,856,360,33.7016
153.1,145,113,178.5,8,1001.9,688.7,28,25.5596
288,192,0,192,0,932,717.8,90,50.5269
116,173,0,192,0,909.8,891.9,7,10.0898
332.5,142.5,0,228,0,932,594,7,30.2756
190.34,0,125.18,161.85,9.88,1088.1,802.59,28,28.4685
213.5,0,174.24,154.61,11.66,1052.3,775.48,3,17.3679
153.1,145,113,178.5,8,867.2,824,28,26.2332
158.8,238.2,0,185.7,0,1040.6,734.3,7,9.6175
252.5,0,0,185.7,0,1111.6,784.3,28,19.7652
359,19,141,154,10.91,942,801,3,25.1166
252.31,0,98.75,146.25,14.17,987.76,889.01,28,50.6006
424,22,132,178,8.48,822,750,28,62.05284
186.2,124.1,0,185.7,0,1083.4,764.3,28,17.5968
167,75.4,167,164.03,7.91,1007.3,770.1,100,56.8128
425,106.3,0,153.5,16.5,852.1,887.1,56,64.3005
183.9,122.6,0,203.5,0,959.2,800,7,10.7875
339,0,0,197,0,968,781,3,13.2241
212.57,0,100.39,159.35,10.37,1003.8,903.79,14,25.3727
249.1,0,98.75,158.11,12.8,987.76,889.01,100,51.0557
173.54,50.05,173.53,164.77,6.47,1006.2,793.5,56,53.7722
236,0,0,194,0,968,885,28,18.4159
168.88,42.22,124.25,158.33,10.83,1080.8,796.15,28,31.1161
313.3,262.2,0,175.5,8.6,1046.9,611.8,7,42.7958
375,0,0,186,0,1038,758,7,26.0622
339.2,0,0,185.7,0,1069.2,754.3,28,31.9
222.36,0,96.67,189.29,4.46,967.08,870.32,3,11.5763
132,206.5,160.9,178.9,5.5,866.9,735.6,28,33.3065
314,145.3,113.2,178.9,8,869.1,690.2,28,46.2342
425,106.3,0,153.5,16.5,852.1,887.1,3,33.3982
198.6,132.4,0,192,0,978.4,825.5,28,28.0217
362.6,189,0,164.9,11.6,944.7,755.8,3,35.3012
321.4,0,127.9,182.5,11.5,870.1,779.7,28,37.2655
296,0,0,192,0,1085,765,28,21.6495
229.97,0,118.31,195.47,4.63,1029.4,758.59,3,10.0319
316.1,210.7,0,185.7,0,977,689.3,7,24.4378
135.7,203.5,0,185.7,0,1076.2,759.3,7,7.50701
323.7,282.8,0,183.8,10.3,942.7,659.9,28,74.6978
145,0,134,181,11,979,812,28,13.1966
424,22,132,168,8.92,822,750,3,32.1099
214.9,53.8,121.89,155.63,9.61,1014.3,780.58,100,56.6336
520,0,0,175,5.2,870,805,28,51.0212
182.04,45.21,121.97,170.21,8.19,1059.4,780.65,56,43.499
212.52,0,100.37,159.32,8.71,1007.8,903.59,28,31.6401
425,106.3,0,153.5,16.5,852.1,887.1,7,49.201
425,106.3,0,153.5,16.5,852.1,887.1,91,65.1969
220.8,147.2,0,185.7,0,1055,744.3,28,25.745
146,173,0,182,3,986,817,28,23.7387
167.95,42.08,163.83,121.75,5.72,1058.7,780.11,56,32.8535
366,187,0,191,7,824,757,28,65.907
379.5,151.2,0,153.9,15.9,1134.3,605,28,52.2002
382,0,0,186,0,1111,784,7,11.466
323.7,282.8,0,183.8,10.3,942.7,659.9,3,28.2961
313,145,0,127,8,1000,822,28,44.5195
160,128,122,182,6.4,824,879,28,39.3967
401.8,94.7,0,147.4,11.4,946.8,852.1,3,41.0997
425,106.3,0,151.4,18.6,936,803.7,28,61.7977
198.6,132.4,0,192,0,978.4,825.5,3,9.13142
212.52,0,100.37,159.32,8.71,1007.8,903.59,56,42.5476
213.5,0,174.24,159.21,11.66,1043.6,771.9,28,44.6367
385,0,136,158,20,903,768,28,55.5511
540,0,0,173,0,1125,613,270,74.1669
144,170,133,192,8,814,805,28,29.8681
312.7,144.7,0,127.3,8,999.7,822.2,28,44.5236
427.5,47.5,0,228,0,932,594,28,37.4275
165,128.5,132.1,175.06,8.08,1005.8,746.6,100,55.0202
401.8,94.7,0,147.4,11.4,946.8,852.1,56,73.6981
255,0,0,192,0,889.8,945,7,10.2222
108.3,162.4,0,203.5,0,938.2,849,7,7.72351
181.38,0,167.01,169.59,7.56,1055.6,777.8,100,45.3675
388.6,97.1,0,157.9,12.1,852.1,925.7,56,55.1994
366,187,0,191.3,6.6,824.3,756.9,28,65.9091
469,117.2,0,137.8,32.2,852.1,840.5,7,54.8961
251.37,0,118.27,192.94,5.75,1043.6,754.3,14,20.7256
540,0,0,173,0,1125,613,180,71.6228
289,134,0,195,6,924,760,28,46.2432
321,164,0,190,5,870,774,28,57.2127
165,0,150,182,12,1023,729,28,18.0298
286.3,200.9,0,144.7,11.2,1004.6,803.7,3,24.4006
122.6,183.9,0,203.5,0,958.2,800.1,3,3.31983
339,0,0,197,0,968,781,14,27.0412
339,0,0,197,0,968,781,7,20.967
144,0,175,158,18,943,844,28,15.4167
192,288,0,192,0,929.8,716.1,90,50.7323