File: 2720/a4/.ipynb_checkpoints/train-checkpoint.csv
Cement (component 1)(kg in a m^3 mixture),Blast Furnace Slag (component 2)(kg in a m^3 mixture),Fly Ash (component 3)(kg in a m^3 mixture),Water  (component 4)(kg in a m^3 mixture),Superplasticizer (component 5)(kg in a m^3 mixture),Coarse Aggregate  (component 6)(kg in a m^3 mixture),Fine Aggregate (component 7)(kg in a m^3 mixture),Age (day),Concrete compressive strength(MPa, megapascals)
500,0,0,200,0,1125,613,3,26.0622
362.6,189,0,164.9,11.6,944.7,755.8,91,79.2966
157,236,0,192,0,935.4,781.2,3,9.69472
356,119,0,160,9.03,1061,657,28,58.9985
540,0,0,162,2.5,1055,676,28,61.8874
238,0,0,185,0,1118,789,28,17.5403
250,0,95.69,187.42,5.53,956.86,861.17,56,38.328
528,0,0,185,6.86,920,720,28,56.8335
251.81,0,99.94,146.14,12.35,1006,899.76,14,33.3568
540,0,0,173,0,1125,613,7,52.6139
387,20,94,157,11.61,938,845,56,61.4599
167,75.4,167,164.03,7.91,1007.3,770.1,14,32.9018
325,0,0,184,0,1063,783,7,17.5403
469,117.2,0,137.8,32.2,852.1,840.5,28,66.8999
446,24,79,162,11.61,967,712,56,61.0669
250,0,0,182,0,1100,820,28,20.8704
183.9,122.6,0,203.5,0,959.2,800,28,24.0462
339,0,0,185,0,1069,754,7,21.16
379.5,151.2,0,153.9,15.9,1134.3,605,3,28.5995
166.8,250.2,0,203.5,0,975.6,692.6,28,33.9477
475,118.8,0,181.1,8.9,852.1,781.5,3,37.7971
273,0,90,199,11,931,762,28,32.2399
475,0,59,142,1.9,1098,641,28,57.2265
400,0,0,187,0,1025,745,7,30.1439
427.5,47.5,0,228,0,932,594,7,35.0764
284,120,0,168,7,970,794,28,40.9342
154,144,112,220,10,923,658,28,16.4992
173.81,93.37,159.9,172.34,9.73,1007.2,746.6,100,50.9385
214.9,53.8,121.89,155.63,9.61,1014.3,780.58,28,52.2002
425,106.3,0,153.5,16.5,852.1,887.1,56,64.3005
382,0,0,186,0,1047,739,28,37.4248
359,19,141,154,10.91,942,801,28,62.9354
198.6,132.4,0,192,0,978.4,825.5,7,14.6383
261.9,110.5,86.1,195.4,5,895.2,732.6,28,33.7188
144.8,0,133.6,180.8,11.1,979.5,811.5,28,13.2021
168.88,42.22,124.25,158.33,10.83,1080.8,796.15,3,7.39808
425,106.3,0,153.5,16.5,852.1,887.1,7,49.201
272.8,181.9,0,185.7,0,1012.4,714.3,28,31.3815
213.72,98.05,24.51,181.71,6.86,1065.8,785.38,28,45.7054
350,0,0,203,0,974,775,28,27.3377
297,0,0,186,0,1040,734,7,30.9575
214.9,53.8,121.89,155.63,9.61,1014.3,780.58,3,18.016
295.71,0,95.64,171.54,8.87,955.14,859.2,56,48.7184
387,20,94,157,13.93,938,845,7,45.8984
355.9,0,141.6,193.3,11,801.4,778.4,28,40.8687
424,22,132,178,8.48,822,750,56,65.6972
190.34,0,125.18,161.85,9.88,1088.1,802.59,3,9.44582
151,0,184,167,12,991,772,28,15.5684
173.81,93.37,159.9,172.34,9.73,1007.2,746.6,3,15.8166
387,20,94,157,14.32,938,845,28,50.2352
178.03,129.8,118.6,179.94,3.57,1007.3,746.8,3,20.7256
233.81,0,94.58,197.89,4.567,947.04,852.16,56,27.6618
212,0,124.78,159,7.84,1085.4,799.54,56,45.0848
297.16,0,117.54,174.8,9.52,1022.8,753.45,56,51.9589
350,0,0,186,0,1050,770,28,34.2945
141.3,212,0,203.5,0,971.8,748.5,3,4.82771
250.2,166.8,0,203.5,0,977.6,694.1,3,9.73126
313.3,145,0,178.5,8,1001.9,688.7,28,41.0535
382,0,0,185,0,1047,739,28,37.4248
350,0,0,203,0,974,775,180,32.7225
500,0,0,200,0,1125,613,28,44.092
425,106.3,0,151.4,18.6,936,803.7,56,64.9004
155,0,143,193,9,1047,697,28,12.4588
252,0,0,185,0,1111,784,7,13.7137
277.19,97.82,24.46,160.7,11.19,1061.7,782.46,28,63.1422
212.57,0,100.39,159.35,10.37,1003.8,903.79,28,37.4041
295.71,0,95.64,171.54,8.87,955.14,859.2,14,35.2322
170.3,155.5,0,185.7,0,1026.6,724.3,7,10.7303
339,0,0,197,0,968,781,365,38.8933
102,153,0,192,0,887,942,3,4.56502
322,0,0,203,0,974,800,180,29.5854
290.35,0,96.18,168.08,9.41,961.18,865,3,22.5045
225,0,0,181,0,1113,833,28,17.3403
387,20,94,157,11.61,938,845,7,41.665
336,0,0,182,3,986,817,28,44.8642
251.37,0,118.27,192.94,5.75,1043.6,754.3,3,11.9831
213.72,98.05,24.51,181.71,6.86,1065.8,785.38,14,30.3852
333,0,0,192,0,931.2,842.6,90,41.6802
388.6,97.1,0,157.9,12.1,852.1,925.7,7,34.9013
234,156,0,189,5.85,981,760,28,39.3001
246.83,0,125.08,143.3,11.99,1086.8,800.89,28,52.5036
148.1,0,182.1,181.4,15,838.9,884.3,28,15.5263
155.6,243.5,0,180.3,10.7,1022,697.7,28,37.3634
190,190,0,228,0,932,670,365,53.6923
304,76,0,228,0,932,670,365,55.2601
304,140,0,214,6,895,722,28,33.4189
331,0,0,192,0,978,825,28,31.447
165,0.02,143.57,163.81,0,1005.6,900.9,3,14.3963
158,0,195,220,11,898,713,28,8.53571
339,0,0,197,0,968,781,28,32.0399
192,288,0,192,0,929.8,716.1,7,21.4806
296,0,0,192,0,1085,765,7,14.2032
284,15,141,179,5.46,842,801,7,24.13166
339,0,0,197,0,968,781,180,36.4457
212,0,124.78,159,7.84,1085.4,799.54,3,19.5191
322,0,0,203,0,974,800,28,25.1797
326,166,0,174,9,882,790,28,61.2324
116,173,0,192,0,909.8,891.9,3,6.28044
252,97,76,194,8,835,821,28,33.3982
251.37,0,118.27,192.94,5.75,1043.6,754.3,56,39.2657
302,0,0,203,0,974,817,14,18.1263
162,190.1,148.1,178.8,18.8,838.1,741.4,28,33.7623
262,111,86,195,5,895,733,28,33.7154
480,0,0,192,0,936,721,28,43.892
303.6,139.9,0,213.5,6.2,895.5,722.5,28,33.4196
500,0,0,200,0,1125,613,90,47.2222
212.07,0,121.62,180.31,5.69,1057.6,779.32,3,12.4726
266,114,0,228,0,932,670,90,47.0298
200,133,0,192,0,965.4,806.2,28,30.4397
322,0,0,203,0,974,800,14,20.7739
318.8,212.5,0,155.7,14.3,852.1,880.4,56,66.1001
356,0,142,193,11,801,778,28,40.8652
162,190,148,179,19,838,741,28,33.7567
149,117.6,91.7,182.9,7.1,953.4,780.3,28,23.5242
305.3,203.5,0,203.5,0,965.4,631,3,14.1439
480,0,0,192,0,936.2,712.2,7,34.5696
389.9,189,0,145.9,22,944.7,755.8,7,59.095
332.5,142.5,0,228,0,932,594,90,37.7219
260.9,100.5,78.3,200.6,8.6,864.5,761.5,28,32.4012
200,200,0,190,0,1145,660,28,49.2493
379.5,151.2,0,153.9,15.9,1134.3,605,56,54.8961
203.5,305.3,0,203.5,0,963.4,630,90,51.8638
231.75,0,121.62,173.96,6.72,1056.4,778.45,14,26.7724
387,20,94,157,14.32,938,845,7,36.8387
250.2,166.8,0,203.5,0,977.6,694.1,90,47.7145
236,0,0,193,0,968,885,7,9.99051
380,95,0,228,0,932,594,90,40.5633
266,112,87,178,10,910,745,28,39.4173
155,183,0,193,9,1047,697,28,18.2849
531.3,0,0,141.8,28.2,852.1,893.7,3,41.2996
214.9,53.8,121.89,155.63,9.61,1014.3,780.58,56,53.9584
305.3,203.5,0,203.5,0,965.4,631,90,54.5989
475,0,0,228,0,932,594,28,39.2898
178.03,129.8,118.6,179.94,3.57,1007.3,746.8,28,39.1622
236,157,0,192,0,972.6,749.1,7,20.4161
387,20,94,157,14.32,938,845,56,56.3371
272.6,0,89.6,198.7,10.6,931.3,762.2,28,32.2454
289,133.7,0,194.9,5.5,924.1,760.1,28,46.2473
251.37,0,118.27,188.45,6.35,1028.4,757.73,100,44.2092
313.3,262.2,0,175.5,8.6,1046.9,611.8,56,64.9004
194.68,0,100.52,165.62,7.48,1006.4,905.9,3,12.4519
491,26,123,201,3.93,822,699,28,57.916
194.68,0,100.52,170.17,7.48,998,901.8,28,37.2662
167.35,129.9,128.62,175.46,7.79,1006.3,746.6,28,41.2031
374,189.2,0,170.1,10.1,926.1,756.7,91,64.9004
168.88,42.22,124.25,158.33,10.83,1080.8,796.15,14,23.5111
136.4,161.6,125.8,171.6,10.4,922.6,764.4,28,29.0731
425,106.3,0,153.5,16.5,852.1,887.1,91,65.1969
446,24,79,162,11.61,967,712,7,52.0072
277,116.8,91,190.6,7,946.5,665.6,28,43.5783
136,196,98,199,6,847,783,28,26.9654
170.3,155.5,0,185.7,0,1026.6,724.3,28,25.7264
286.3,200.9,0,144.7,11.2,1004.6,803.7,56,72.9948
173,116,0,192,0,946.8,856.8,7,11.3922
277.05,0,97.39,160.6,11.83,973.9,875.61,28,48.284
310,142.8,0,167.9,10,914.3,804,28,45.3048
475,118.8,0,181.1,8.9,852.1,781.5,91,74.1945
491,26,123,210,3.93,882,699,3,25.6091
198.6,132.4,0,192,0,978.4,825.5,90,38.0742
190,190,0,228,0,932,670,28,40.857
281,0,0,186,0,1104,774,28,22.4355
212.52,0,100.37,159.32,8.71,1007.8,903.59,100,42.9199
165,0.02,143.57,163.81,0,1005.6,900.9,28,26.2001
153,239,0,200,6,1002,684,28,26.8551
312.9,160.5,0,177.6,9.6,916.6,759.5,28,52.4464
427.5,47.5,0,228,0,932,594,180,41.8367
158.4,0,194.9,219.7,11,897.7,712.9,28,8.5364
178.03,129.8,118.6,179.94,3.57,1007.3,746.8,56,48.5874
313.3,262.2,0,175.5,8.6,1046.9,611.8,3,28.7994
362.6,189,0,164.9,11.6,944.7,755.8,91,79.2966
359,19,141,154,10.91,942,801,56,66.7807
182.04,45.21,121.97,170.21,8.19,1059.4,780.65,100,48.6701
237.5,237.5,0,228,0,932,594,7,26.258
212.57,0,100.39,159.35,10.37,1003.8,903.79,100,47.7393
310,0,0,192,0,1012,830,28,27.8273
246.83,0,125.08,143.3,11.99,1086.8,800.89,56,60.3223
397,0,0,185,0,1040,734,28,39.0933
310,0,0,192,0,970,850,180,37.3282
236,157,0,192,0,972.6,749.1,3,13.5654
167,75.4,167,164.03,7.91,1007.3,770.1,56,53.462
491,26,123,201,3.93,822,699,56,61.8558
427.5,47.5,0,228,0,932,594,270,43.013
275.07,0,121.35,159.48,9.9,1053.6,777.5,56,56.8473
349,0,0,192,0,1047,806.9,3,15.0492
272.8,181.9,0,185.7,0,1012.4,714.3,7,19.7652
236,0,0,194,0,968,885,90,21.946
376,0,0,214.6,0,1003.5,762.36,100,43.0578
133,210,0,196,3,949,795,28,31.02642
252.31,0,98.75,146.25,14.17,987.76,889.01,14,42.2925
252,0,0,185,0,1111,784,28,19.6914
236,157,0,192,0,972.6,749.1,90,47.7821
222.36,0,96.67,189.29,4.46,967.08,870.32,28,24.8901
275.07,0,121.35,159.48,9.9,1053.6,777.5,100,58.60546
284,15,141,179,5.46,842,801,3,13.3955
213.74,0,174.74,154.79,10.16,1053.5,776.35,14,33.7292
229.68,0,118.16,195.23,6.13,1028.1,757.63,56,31.3505
388.6,97.1,0,157.9,12.1,852.1,925.7,91,57.5988
167,187,195,185,7,898,636,28,23.8903
290.35,0,96.18,168.08,9.41,961.18,865,28,34.7358
313,0,0,178,8,1000,822,28,25.0969
388.6,97.1,0,157.9,12.1,852.1,925.7,3,28.0961
213.74,0,174.74,154.79,10.16,1053.5,776.35,28,40.1482
194.68,0,100.52,165.62,7.48,1006.4,905.9,100,37.342
520,0,0,170,5.2,855,855,28,60.2809
491,26,123,210,3.93,882,699,56,59.5904
236,0,0,193,0,968,885,180,24.1041
333,0,0,192,0,931.2,842.6,28,31.9669
288,192,0,192,0,932,717.8,3,16.1096
255,0,0,192,0,889.8,945,28,18.7462
229.68,0,118.16,195.23,6.13,1028.1,757.63,100,40.8583
237.5,237.5,0,228,0,932,594,270,38.408
389.9,189,0,145.9,22,944.7,755.8,56,79.4001
246.83,0,125.08,143.3,11.99,1086.8,800.89,100,66.4241
254,0,0,198,0,968,863,365,29.7854
362.6,189,0,164.9,11.6,944.7,755.8,7,55.8958
305,0,100,196,10,959,705,28,30.1232